IESNA:LM-63-2002
[TEST]236p182
[TESTLAB]METALUX LABORITORIES
[ISSUEDATE]06/26/06
[MANUFAC]COOPER LIGHTING - METALUX
[LUMCAT]I8-232-G-UNV-EB81
[LUMINAIRE]I8 SERIES LUMINAIRE WITH HIGH REFLECTANCE WHITE WIDE
[MORE]DISTRIBUTION REFLECTOR
[LAMP]TWO 32 WATTS T8 - 2800 LUMENS EA - SYLVANIA - F032/735
[BALLAST]ULTRAMAX GE-232-MAX-N/ULTRA
[OTHER]TOTAL INPUT WATTS = 54.0 AT 120.0 VOLTS
TILT=NONE
2 2800 1 37 5 1  1 0.843750 4.000000 0.000000
1.000 1 54
0 2.5 5 7.5 10 12.5 15 17.5 20 22.5 25 27.5 30 32.5 35 37.5 40 42.5 45 47.5 50 
 52.5 55 57.5 60 62.5 65 67.5 70 72.5 75 77.5 80 82.5 85 87.5 90 
0 22.5 45 67.5 90 
1563 1558 1554 1546 1536 1521 1505 1484 1461 1435 1407 1375 1341 1305 1266 
 1224 1180 1134 1086 1035 983 928 871 812 750 686 620 551 481 406 332 255 179 
 105 43 12 0 
1563 1559 1556 1548 1539 1525 1508 1488 1464 1437 1408 1376 1341 1304 1263 
 1220 1177 1132 1086 1038 986 932 874 814 753 691 629 562 492 420 351 280 207 
 133 69 20 0 
1563 1562 1559 1552 1542 1527 1508 1487 1463 1438 1413 1388 1361 1332 1299 
 1264 1225 1187 1148 1109 1066 1018 966 909 850 786 720 644 559 476 391 299 
 214 151 72 21 0 
1563 1562 1561 1553 1542 1527 1509 1490 1471 1454 1434 1413 1389 1361 1333 
 1306 1279 1248 1213 1173 1129 1078 1025 968 905 826 743 660 576 481 383 297 
 233 155 56 21 0 
1563 1561 1559 1551 1538 1522 1506 1487 1472 1456 1438 1418 1394 1369 1346 
 1323 1297 1266 1231 1192 1147 1097 1045 985 914 829 746 665 573 473 378 299 
 238 144 51 20 0 
