IESNA:LM-63-2002
[TEST]236P187
[TESTLAB]METALUX LABORITORIES
[ISSUEDATE]06/29/06
[MANUFAC]COOPER LIGHTING - METALUX
[LUMCAT]I8-332-G-TBW-UNV-EB81
[LUMINAIRE]I8 SERIES LUMINAIRE WITH HIGH REFLECTANCE WHITE WIDE
[MORE]DISTRIBUTION REFLECTOR AND THIN WHITE LOUVER
[LAMP]THREE 32-WATT T8 LAMPS - 3000 LUMENS EA - PHILIPS - F32T8/TL835
[BALLAST]GE PROLINE GE-432-MV-N
[OTHER]TOTAL INPUT WATTS = 88.0 AT 120.0 VOLTS
TILT=NONE
3 3000 1 37 5 1  1 0.843750 4.000000 0.000000
1.000 1 88
0 2.5 5 7.5 10 12.5 15 17.5 20 22.5 25 27.5 30 32.5 35 37.5 40 42.5 45 47.5 50 
 52.5 55 57.5 60 62.5 65 67.5 70 72.5 75 77.5 80 82.5 85 87.5 90 
0 22.5 45 67.5 90 
2691 2677 2656 2623 2581 2531 2472 2409 2338 2265 2185 2101 2014 1924 1831 
 1733 1634 1533 1427 1319 1207 1096 983 867 751 635 520 429 365 308 253 201 
 152 107 63 24 0 
2691 2680 2662 2631 2594 2545 2489 2429 2362 2290 2212 2130 2044 1955 1863 
 1768 1670 1571 1468 1363 1255 1146 1038 926 814 701 589 482 398 335 279 223 
 172 124 80 44 0 
2691 2687 2672 2648 2617 2576 2529 2477 2418 2355 2289 2219 2147 2070 1992 
 1911 1827 1740 1646 1548 1446 1342 1238 1135 1032 920 803 685 568 454 355 281 
 225 164 112 74 0 
2691 2691 2682 2664 2640 2610 2575 2538 2495 2449 2400 2348 2294 2237 2173 
 2104 2030 1949 1864 1778 1694 1607 1512 1403 1290 1175 1057 928 802 686 579 
 449 323 215 135 99 0 
2691 2685 2678 2665 2644 2620 2593 2564 2531 2495 2457 2418 2376 2329 2276 
 2216 2151 2082 2011 1941 1868 1786 1688 1584 1476 1364 1233 1099 969 841 694 
 513 336 183 92 50 0 
