IESNA:LM-63-1995
[DATE]03-14-2000
[TEST]107P148
[MANUFAC]COOPER LIGHTING - METALUX
[LUMCAT]NY-2GC8-332A187-UNV-EB81
[LUMINAIRE]METALUX 2' X 4' SPECIFICATION GRADE NYC RATED RECESSED FLUORESCENT TROFFER WITH
[MORE]HIGH REFLECTANCE WHITE INTERIOR FINISH AND ACRYLIC PRISMATIC LENS, 0.187" NOM. THK
[LAMP]Three - FO32/35K - 2800 Lumens ea. - 32 Watts ea.
[BALLAST]UNIVERSAL B332IUNVHP-A
[OTHER]INPUT WATTS = 84
TILT=NONE
 3     2800.   1.00  73  5 1  1  1.79  3.81  0.00
1.000 1.000    84.
0 2.5 5 7.5 10 12.5 15 17.5 20 22.5 25 27.5 30 32.5 35 37.5 40 42.5 45 47.5 50
 52.5 55 57.5 60 62.5 65 67.5 70 72.5 75 77.5 80 82.5 85 87.5 90 92.5 95 97.5
 100 102.5 105 107.5 110 112.5 115 117.5 120 122.5 125 127.5 130 132.5 135
 137.5 140 142.5 145 147.5 150 152.5 155 157.5 160 162.5 165 167.5 170 172.5
 175 177.5 180
0 22.5 45 67.5 90
2428 2420 2412 2400 2383 2361 2333 2299 2260 2215 2165 2108 2046 1978 1903 1819
 1721 1603 1466 1307 1135 963 801 654 533 443 385 346 317 293 265 226 179 134
 95 49 0 0 0 0 0 0 0 0 0 0 0 0 0 0 0 0 0 0 0 0 0 0 0 0 0 0 0 0 0 0 0 0 0 0 0 0
 0
2428 2423 2416 2405 2390 2371 2346 2317 2282 2243 2200 2151 2097 2035 1965 1881
 1779 1651 1486 1283 1074 894 760 658 577 503 428 359 308 278 252 226 190 144
 98 50 0 0 0 0 0 0 0 0 0 0 0 0 0 0 0 0 0 0 0 0 0 0 0 0 0 0 0 0 0 0 0 0 0 0 0 0
 0
2428 2427 2423 2417 2407 2394 2376 2355 2331 2302 2271 2234 2192 2142 2083 2013
 1919 1778 1563 1293 1040 864 747 658 572 474 379 313 285 281 270 228 182 141
 96 51 0 0 0 0 0 0 0 0 0 0 0 0 0 0 0 0 0 0 0 0 0 0 0 0 0 0 0 0 0 0 0 0 0 0 0 0
 0
2428 2430 2429 2427 2422 2414 2403 2390 2374 2355 2332 2306 2274 2236 2187 2115
 2007 1846 1631 1388 1157 965 817 701 603 510 421 349 302 273 251 226 189 145
 100 50 0 0 0 0 0 0 0 0 0 0 0 0 0 0 0 0 0 0 0 0 0 0 0 0 0 0 0 0 0 0 0 0 0 0 0 0
 0
2428 2435 2435 2434 2431 2425 2416 2405 2392 2375 2355 2331 2303 2270 2226 2158
 2054 1903 1703 1478 1245 1028 835 671 540 447 388 351 319 291 260 221 181 146
 108 58 0 0 0 0 0 0 0 0 0 0 0 0 0 0 0 0 0 0 0 0 0 0 0 0 0 0 0 0 0 0 0 0 0 0 0 0
 0
