IESNA:LM-63-2002
[TEST] 119P163
[TESTLAB] METALUX LABORATORIES
[ISSUEDATE]05/27/08
[MANUFAC] COOPER LIGHTING - METALUX
[LUMCAT] 2HP2GX-217W23P-EB81/PLUS        
[LUMINAIRE]FORMED WHITE HIGH-REFLECTANCE PRE-PAINT STEEL HOUSING &           
[MORE] COMPONENTS, NO REFLECTOR, 6 CELL, 2" DEEP, FORMED WHITE ALUMINUM
[MORE] LOUVER, TALL SKTS
[LAMP]TWO LINEAR FLUORESCENT LAMPS, F17T8/TL835 17W - 1450 LUMENS EA
[OTHER]TOTAL INPUT WATTS = 41
TILT=NONE
2 1450 1 37 5 1  1 1.770833 1.770833 0.000000
1.000 1 41
0 2.5 5 7.5 10 12.5 15 17.5 20 22.5 25 27.5 30 32.5 35 37.5 40 42.5 45 47.5 50 
 52.5 55 57.5 60 62.5 65 67.5 70 72.5 75 77.5 80 82.5 85 87.5 90 
0 22.5 45 67.5 90 
883 882 879 872 861 849 834 817 798 778 755 731 706 678 650 620 589 557 524 
 489 455 419 384 347 310 272 233 194 158 125 94 75 59 44 29 15 0 
883 882 879 872 864 853 839 824 806 786 764 740 715 689 664 637 608 575 540 
 503 463 424 386 348 314 280 245 208 172 136 103 77 60 44 29 15 0 
883 882 880 877 871 862 848 834 819 805 786 762 736 706 676 647 619 593 567 
 539 510 478 444 407 370 332 295 249 195 138 99 78 61 45 30 16 0 
883 883 883 881 877 868 858 851 839 819 797 771 748 727 709 692 673 652 629 
 601 571 539 506 473 438 379 303 216 145 109 93 78 62 45 29 15 0 
883 884 885 883 880 871 864 858 844 826 803 782 763 748 736 721 705 686 664 
 637 608 578 550 521 467 390 288 191 130 107 93 79 63 45 29 14 0 
