IESNA:LM-63-1995
[TEST]     23301
[MANUFAC]COOPER LIGHTING - CORELITE
[LUMCAT]R2-WB-1N5-22                                                                    
[LUMINAIRE]WITH WHITE INTERIOR AND CLEAR LINEAR PRISMATIC PLASTIC LENS WITH WHITE BAFFLE   
[LAMP]ONE SYLVANIA 14 WATT T5 LAMP                                                    
[LAMPCAT]FP14/841. LUMEN RATING = 1200 LMS.                                              
[OTHER]ONE UNIVERSAL B228PUNV-C BALLAST OPERATING AT 120 VAC AND 17 WATTS              
[OTHER]LAMP COLD SPOT TEMPERATURE - 38.5 C
[OTHER]PAINT REFLECTIVITY - FIXTURE 92% TRAY 84%
TILT=NONE
1
      1200
1
37
5
1
1
  1.95
  1.91
  0.00
1
1
   17.0000
0 2.5 5 7.5 10 12.5 15 17.5 20 22.5 25 27.5 30 32.5 35 37.5
40 42.5 45 47.5 50 52.5 55 57.5 60 62.5 65 67.5 70 72.5 75
77.5 80 82.5 85 87.5 90
0 22.5 45 67.5 90
     307.2      307.4      305.4      302.1      297.6      291.9      285.0      277.2      268.3      258.7
     248.4      237.6      226.1      214.2      202.0      190.0      177.8      165.8      153.9      142.0
     130.1      118.3      106.9       96.7       87.2       78.1       69.0       60.1       51.4       42.7
      34.2       25.9       18.3       11.7        6.1        1.9        0.0
     307.2      307.7      306.3      304.1      301.5      297.7      292.8      287.0      281.1      274.0
     266.5      258.1      249.3      240.4      230.2      218.9      206.6      193.9      180.6      167.1
     153.3      139.7      126.8      114.4      102.7       91.7       81.4       72.1       63.1       54.5
      46.0       38.0       30.1       21.7       12.3        3.7        0.1
     307.2      306.9      307.7      309.1      310.5      312.4      314.0      315.7      316.2      315.1
     311.6      305.3      297.3      287.6      277.2      265.6      254.3      242.7      231.8      221.7
     212.0      203.4      195.8      188.2      178.8      165.8      150.3      136.1      123.8      111.9
     100.3       87.7       73.0       54.1       31.4       12.8        2.2
     307.2      306.5      309.4      314.0      320.8      328.0      335.3      339.2      338.9      334.6
     328.7      321.4      313.5      306.3      299.2      291.6      284.9      280.0      276.1      273.1
     271.8      272.4      273.0      270.5      262.5      247.0      228.6      213.1      200.7      188.5
     174.1      157.2      134.3      100.4       64.2       33.0        7.5
     307.2      306.3      310.0      316.3      324.8      334.3      342.3      345.5      343.9      339.4
     334.2      327.7      322.5      317.7      311.8      307.3      304.3      302.5      301.7      303.0
     307.5      313.1      317.3      318.5      310.4      291.4      270.4      254.4      241.4      227.2
     211.7      192.6      164.9      123.8       85.0       45.0       11.5
