IESNA:LM-63-1995
[DATE]07-22-1993
[TEST]147P100                             
[MANUFAC]COOPER LIGHTING - METALUX
[LUMCAT]DIM-432-WG/PA
[LUMINAIRE]DIM Series Heavy Duty Industrial Luminaire
[MORE]equipped with wire guard and .125 pattern
[MORE]12 acrylic lens.
[LAMP]Four-F32T8/35K - 2900 Lumens ea. - 32 Watts ea.
[BALLAST]Triad-Utrad B432I120 Electronic
TILT=NONE
 4     2900.   1.00  73  5 1  1  0.8850  3.8800  0.0000
1.000 1.000   111.7
0 2.5 5 7.5 10 12.5 15 17.5 20 22.5 25 27.5 30 32.5 35 37.5 40 42.5 45 47.5 50
 52.5 55 57.5 60 62.5 65 67.5 70 72.5 75 77.5 80 82.5 85 87.5 90 92.5 95 97.5
 100 102.5 105 107.5 110 112.5 115 117.5 120 122.5 125 127.5 130 132.5 135
 137.5 140 142.5 145 147.5 150 152.5 155 157.5 160 162.5 165 167.5 170 172.5
 175 177.5 180
0 22.5 45 67.5 90
2597 2598 2589 2574 2552 2523 2491 2449 2402 2349 2289 2222 2146 2064 1974 1873
 1761 1641 1513 1380 1245 1116 1000 894 797 708 625 552 486 429 381 333 280 220
 158 82 30 37 50 72 95 119 143 170 195 221 246 270 295 319 341 364 386 407 426
 445 463 479 495 509 522 534 545 554 563 570 576 582 587 590 594 596 599
2597 2596 2587 2573 2553 2528 2498 2462 2422 2375 2321 2258 2189 2109 2017 1915
 1800 1675 1541 1406 1275 1143 1017 899 790 691 603 531 475 427 387 348 308 260
 206 146 103 90 100 128 152 182 186 179 180 177 182 205 240 267 293 322 348 367
 384 399 420 445 468 493 518 542 558 569 576 581 585 589 592 594 596 596 599
2597 2595 2589 2579 2565 2549 2527 2501 2470 2431 2382 2320 2246 2156 2053 1937
 1809 1677 1539 1399 1259 1127 996 866 750 643 547 471 415 368 331 302 268 217
 179 141 88 82 79 95 133 175 204 233 267 304 316 290 275 267 259 252 253 269
 310 351 384 410 442 464 475 479 494 516 539 568 594 602 604 603 602 601 599
2597 2596 2592 2586 2579 2568 2554 2536 2509 2467 2413 2341 2252 2154 2051 1935
 1809 1673 1536 1398 1253 1110 972 839 724 626 545 471 411 366 327 291 246 218
 185 133 73 71 71 70 105 149 192 234 259 289 323 365 390 376 342 323 310 298
 288 285 298 345 391 426 453 487 501 502 511 532 559 595 608 608 604 602 599
2597 2590 2586 2583 2577 2568 2557 2541 2513 2470 2412 2334 2247 2154 2053 1938
 1814 1680 1535 1382 1236 1089 950 824 716 625 544 475 426 390 353 307 258 221
 183 119 67 72 70 66 91 140 177 227 255 283 314 353 393 414 387 353 334 319 307
 295 294 311 362 407 440 470 500 508 506 522 546 579 606 607 603 601 599
