IESNA:LM-63-2002
[TEST]P23063
[TESTLAB]Innovations Center P2
[ISSUEDATE]12/05/12
[TESTDATE]12/05/12
[MANUFAC]COOPER LIGHTING - NEO-RAY
[LUMCAT]S23DP-2L35-ETG-4-U-DD-S92HTS
[LUMINAIRE]NEORAY RECESSED LED 5" SLOT LUMINAIRE WITH A DIFFUSED LENS
[LAMPCAT]N/A
[LAMP](1) COOPER 3500K LEDS
[BALLASTCAT]LEDINTA2000C24DO
[BALLAST](1) PHILIPS ELECTRONIC DRIVER
[OTHER]INPUT WATTS:37.52, AMPS:0.313, VAC: 120.06; AMB TEMP: 25.0 C;
[MORE]OPERATED PRIOR TO TESTING: 2 HRS, STABILITY: 30 MIN, TOTAL OP
[MORE]TIME: 3 HRS
[_MOUNTING]SINGLE CHANNEL
[_ABSOLUTE_TEST]ABSOLUTE PHOTOMETRY IS BASED ON CALIBRATION FACTORS CREATED
[MORE]USING A 500 WATT, NIST TRACEABLE, OMNIDIRECTIONAL LAB LUMEN
[MORE]STANDARD IN THE GONIOPHOTOMETER WITH TEST DISTANCE OF 28.75
[MORE]FEET
[_ABSOLUTE]NOTE: DATA SHOWN IS ABSOLUTE FOR THE SAMPLE PROVIDED.
[_ABSOLUTELUMENS]2636
TILT=NONE
1 -1 1 37 5 1  1 0.395833 3.958333 0.000000
1.000 1 37.5
0 2.5 5 7.5 10 12.5 15 17.5 20 22.5 25 27.5 30 32.5 35 37.5 40 42.5 45 47.5 50 
 52.5 55 57.5 60 62.5 65 67.5 70 72.5 75 77.5 80 82.5 85 87.5 90 
0 22.5 45 67.5 90 
1287 1300 1293 1283 1269 1251 1228 1202 1173 1138 1101 1063 1016 970 920 872 
 818 765 711 661 604 555 504 455 407 360 316 274 233 195 159 127 97 69 46 24 0 
1287 1280 1273 1262 1245 1224 1198 1169 1136 1098 1057 1012 965 916 865 813 
 761 709 656 605 554 505 459 413 370 327 287 248 212 178 147 118 91 67 45 25 0 
1287 1287 1277 1261 1237 1210 1175 1137 1094 1047 996 945 890 835 779 724 670 
 618 567 518 471 427 386 346 309 274 241 210 181 154 129 105 84 64 45 26 0 
1287 1281 1267 1247 1217 1182 1141 1093 1039 982 925 866 807 749 692 637 585 
 536 489 447 406 368 333 300 269 239 212 186 162 140 118 98 80 62 45 28 0 
1287 1276 1267 1245 1213 1175 1130 1079 1024 964 902 841 781 722 665 612 560 
 512 467 425 386 350 317 286 257 229 203 179 156 134 114 96 78 61 44 27 0 
