IESNA:LM-63-2002
[TEST]P23064
[TESTLAB]Innovations Center P2
[ISSUEDATE]12/05/12
[TESTDATE]12/05/12
[MANUFAC]COOPER LIGHTING - NEO-RAY
[LUMCAT]S23DW-1L35-ETG-4-U-DD-S92HTS
[LUMINAIRE]NEORAY RECESSED LED 5" SLOT LUMINAIRE WITH A DIFFUSED LENS
[LAMPCAT]N/A
[LAMP](1) COOPER 3500K LEDS
[BALLASTCAT]LEDINTA2000C24DO
[BALLAST](1) PHILIPS ELECTRONIC DRIVER
[OTHER]INPUT WATTS:28.40, AMPS:0.237, VAC: 120.10; AMB TEMP: 24.9 C;
[MORE]OPERATED PRIOR TO TESTING: 3 HRS, STABILITY: 30 MIN, TOTAL OP
[MORE]TIME: 4 HRS
[_MOUNTING]SINGLE CHANNEL
[_ABSOLUTE_TEST]ABSOLUTE PHOTOMETRY IS BASED ON CALIBRATION FACTORS CREATED
[MORE]USING A 500 WATT, NIST TRACEABLE, OMNIDIRECTIONAL LAB LUMEN
[MORE]STANDARD IN THE GONIOPHOTOMETER WITH TEST DISTANCE OF 28.75
[MORE]FEET
[_ABSOLUTE]NOTE: DATA SHOWN IS ABSOLUTE FOR THE SAMPLE PROVIDED.
[_ABSOLUTELUMENS]2061
TILT=NONE
1 -1 1 37 5 1  1 0.395833 3.958333 0.000000
1.000 1 28.4
0 2.5 5 7.5 10 12.5 15 17.5 20 22.5 25 27.5 30 32.5 35 37.5 40 42.5 45 47.5 50 
 52.5 55 57.5 60 62.5 65 67.5 70 72.5 75 77.5 80 82.5 85 87.5 90 
0 22.5 45 67.5 90 
1007 1016 1011 1004 993 979 961 941 918 891 862 830 795 759 720 681 640 599 
 557 515 473 434 393 354 316 280 245 214 181 152 125 100 76 56 36 19 0 
1007 1001 996 986 973 957 937 914 888 858 826 792 755 716 677 636 595 554 513 
 473 433 395 358 322 288 255 223 193 165 140 115 92 72 53 35 20 0 
1007 1007 999 986 968 947 920 890 856 818 778 737 694 651 608 566 522 482 442 
 404 368 334 301 270 241 214 188 164 141 121 101 83 66 50 35 21 0 
1007 1002 991 976 952 925 893 856 814 769 724 679 632 587 543 500 459 421 384 
 350 318 288 260 234 210 188 166 146 127 109 93 77 62 48 35 21 0 
1007 998 991 974 949 920 885 845 802 755 707 659 612 566 522 480 439 401 366 
 333 302 274 248 224 201 179 159 140 122 106 90 75 61 47 34 21 0 
