IESNA:LM-63-2002
[TEST] 08235
[TESTLAB] LUMINAIRE TESTING LABORATORY, INC.
[ISSUEDATE] 07-28-2004
[MANUFAC]COOPER LIGHTING - METALUX                                            
[LUMCAT] 2GC8-3U15/8A-UNV-EB81                                          
[LUMINAIRE]METALUX 2' X 2' SPECIFICATION GRADE RECESSED FLUORESCENT TROFFER
[MORE]WITH HIGH REFLECTANCE WHITE INTERIOR FINISH AND ACRYLIC PRISMATIC LENS
[LAMP] (3) HORIZONTAL 31 WATT U-SHAPED FLUORESCENT LAMPS AT 2800 LUMENS EA                                               
[LAMPCAT] SYLVAIA FBO31/730                                                
[BALLAST] ONE ADVANCE REL-3P32-SC                                          
[OTHER] INPUT WATTS = 73                                          
TILT=NONE        
  3     2800.   1.0  37   5   1   1      1.79      1.81      0.00
  1.0  1.0   73.
0 2.5 5 7.5 10 12.5 15 17.5 20 22.5 25 27.5 30 32.5 35 37.5 40 42.5 45 47.5 50
 52.5 55 57.5 60 62.5 65 67.5 70 72.5 75 77.5 80 82.5 85 87.5 90
0 22.5 45 67.5 90
2440 2432 2424 2414 2383 2363 2338 2295 2252 2197 2146 2078 2006 1921 1832 1732
 1619 1509 1384 1249 1112 985 866 755 661 571 496 432 369 307 258 233 197 149
 98 49 2
2440 2435 2426 2419 2395 2372 2346 2312 2272 2228 2172 2113 2049 1964 1875 1778
 1667 1555 1434 1301 1170 1028 895 765 652 547 456 388 332 287 250 212 178 141
 97 49 2
2440 2436 2426 2425 2404 2394 2371 2345 2314 2272 2227 2173 2112 2038 1962 1876
 1767 1660 1536 1403 1264 1116 975 835 703 574 462 368 301 250 217 203 178 150
 106 55 6
2440 2438 2431 2425 2422 2409 2400 2375 2351 2318 2273 2230 2174 2114 2043 1963
 1864 1757 1631 1487 1337 1172 1015 865 738 626 532 458 406 355 310 274 236 192
 143 72 14
2440 2441 2432 2428 2424 2422 2400 2387 2363 2328 2295 2252 2203 2148 2086 2011
 1910 1814 1687 1546 1394 1224 1057 897 764 637 541 457 412 356 324 291 256 205
 145 76 12
