IESNA:LM-63-2002
[TEST] 08234
[TESTLAB] LUMINAIRE TESTING LABORATORY, INC.
[ISSUEDATE] 07-27-2004
[MANUFAC]COOPER LIGHTING - METALUX                                            
[LUMCAT] 2GC8-3BX40A-120-EB52                     
[LUMINAIRE]METALUX 2' X 2' SPECIFICATION GRADE RECESSED FLUORESCENT TROFFER
[MORE]WITH HIGH REFLECTANCE WHITE INTERIOR FINISH AND ACRYLIC PRISMATIC LENS
[LAMP] (3) HORIZONTAL 40 WATT T5 TWIN TUBE FLUORESCENT LAMPS AT 3100 LUMENS EA
[LAMPCAT] PHILIPS PL-L 40W/41/RS                                           
[BALLAST] ONE ADVANCE RCN-3TTP40-SC                                        
[OTHER]INPUT WATTS = 98                                         
TILT=NONE        
  3     3100.   1.0  37   5   1   1      1.79      1.81      0.00
  1.0  1.0   98.
0 2.5 5 7.5 10 12.5 15 17.5 20 22.5 25 27.5 30 32.5 35 37.5 40 42.5 45 47.5 50
 52.5 55 57.5 60 62.5 65 67.5 70 72.5 75 77.5 80 82.5 85 87.5 90
0 22.5 45 67.5 90
3020 3019 3007 2987 2963 2931 2893 2841 2782 2721 2648 2560 2468 2359 2236 2109
 1968 1817 1657 1491 1328 1174 1021 891 774 675 589 502 428 368 316 270 227 185
 128 65 15
3020 3018 3008 2990 2967 2940 2904 2862 2807 2754 2679 2601 2507 2402 2286 2158
 2020 1872 1713 1547 1384 1220 1050 891 756 626 533 447 386 335 298 254 211 170
 119 67 13
3020 3017 3010 2999 2984 2964 2935 2905 2860 2815 2749 2677 2589 2496 2384 2264
 2124 1974 1809 1638 1464 1280 1102 929 776 640 520 415 341 292 264 241 212 178
 127 71 17
3020 3019 3016 3009 3000 2985 2968 2944 2909 2865 2809 2742 2662 2568 2465 2346
 2209 2050 1874 1678 1481 1284 1095 928 795 679 593 515 458 414 364 316 273 231
 174 98 24
3020 3020 3017 3014 3007 2995 2980 2960 2925 2883 2832 2767 2690 2602 2505 2389
 2250 2097 1914 1716 1518 1315 1118 950 813 692 593 520 457 418 378 344 299 250
 181 101 25
