IESNA:LM-63-2002
[TEST]ITL78215
[TESTLAB]INDEPENDENT TESTING LABORATORIES, INC.
[ISSUEDATE]07/24/13
[MANUFAC]COOPER LIGHTING - CORELITE
[LUMCAT]R2X-WO-3L35-1C-UNV-14
[LUMINAIRE]FORMED WHITE PAINTED METAL REFLECTOR, FORMED WHITE PAINTED
[MORE]METAL DRIVER COVER/CIRCUIT BOARD MOUNT, FABRICATED WHITE
[MORE]PAINTED METAL END PLATES, 4 WHITE CIRCUIT BOARDS EACH WITH 49
[MORE]LEDS, MOLDED WHITE PLASTIC DIFFUSER MOUNTING BRACKETS, EXTRUDED
[MORE]FROSTED PLASTIC DIFFUSER WITH LINEAR PRISMATIC SIDES, DIFFUSER
[MORE]PRISMS OUT AND PARALLEL WITH THE 0-DEGREE PLANE, DIFFUSER
[MORE]FROSTED BOTH SIDES.
[LAMP]ONE HUNDRED NINETY-SIX WHITE MULTI-CHIP LIGHT EMITTING DIODES
[MORE](LEDS), VERTICAL BASE-UP POSITION.
[OTHER]TOTAL INPUT WATTS = 58.1 AT 277.0 VOLTS
[_MOUNTING]RECESSED
[OTHER]TOTAL REFLECTANCE OF PAINT = 92.5 % (DRIVER COVER)
[_LEDDRIVER]TWO ADVANCE LEDINTA2000C24DO (DRIVER ADJUSTABLE OUTPUT
[MORE]CURRENT SETTING (Rset) SET TO 1.2A BY CLIENT SUPPLIED RESISTOR,
[MORE]NO INPUT TO DIMMING LEADS FOR THIS TEST.)
[_NOTE]DATA SHOWN IS ABSOLUTE FOR THE SAMPLE PROVIDED AT RATED INPUT
[MORE]VOLTAGE (277VAC, 60Hz) TO THE LED DRIVERS.
[OTHER]TEST PROCEDURE: IESNA LM-79-08
[OTHER]TEST DISTANCE = 35.0 FEET
[_ABSOLUTELUMENS]5230
TILT=NONE
196 -1 1 37 5 1 1 0.916667 3.906250 0.000000
1 1 58.1
0 2.5 5 7.5 10 12.5 15 17.5 20 22.5 25 27.5 30 32.5 35 37.5 40 42.5 45 47.5 50
 52.5 55 57.5 60 62.5 65 67.5 70 72.5 75 77.5 80 82.5 85 87.5 90
0 22.5 45 67.5 90
1822 1823 1817 1807 1791 1772 1748 1720 1688 1651 1611 1567 1519 1469 1415 1359
 1300 1241 1178 1114 1047 980 911 844 773 701 624 554 480 405 331 260 192 130
 73 32 0
1822 1813 1807 1797 1783 1763 1740 1713 1680 1645 1606 1564 1517 1469 1417 1363
 1306 1245 1184 1121 1056 989 921 851 780 710 638 565 493 422 351 282 217 155
 101 48 0
1822 1823 1817 1808 1794 1776 1754 1727 1696 1661 1622 1580 1535 1487 1436 1382
 1326 1266 1204 1140 1075 1008 940 871 801 730 659 589 519 447 375 309 248 182
 116 54 0
1822 1825 1819 1809 1796 1777 1755 1728 1698 1664 1627 1586 1541 1494 1442 1389
 1332 1272 1210 1147 1082 1018 952 883 813 743 673 601 527 457 393 327 257 188
 121 58 0
1822 1819 1814 1805 1790 1772 1750 1724 1696 1662 1625 1585 1540 1493 1442 1389
 1331 1272 1211 1149 1085 1018 950 881 811 742 671 597 525 457 397 329 258 192
 124 61 0
